Title: The Final Season Reimagined: 30 Tidal Disruption Events from the 
       ZTF-I Survey 
Authors: Hammerstein E., van Velzen S., Gezari S., Cenko S.B., Yao Y., Ward C.,
    Frederick S., Villanueva N., Somalwar J.J., Graham M.J., Kulkarni S.R., 
    Stern D., Andreoni I., Bellm E.C., Dekany R., Dhawan S., Drake A.J., 
    Fremling C., Gatkine P., Groom S.L., Ho A.Y.Q., Kasliwal M.M., 
    Karambelkar V., Kool E.C., Masci F.J., Medford M.S., Perley D.A., 
    Purdum J., van Roestel J., Sharma Y., Sollerman J., Taggart K., Yan L.
Table: Data behind Figures 14-16 -- P200 spectrum of ZTF18acaqdaa on 20191003
================================================================================
Byte-by-byte Description of file: ZTF18acaqdaa_20191003_P200_v1.mrt
--------------------------------------------------------------------------------
   Bytes Format Units       Label  Explanations
--------------------------------------------------------------------------------
   1-  9 F9.3   0.1nm       wave   Wavelength, Angstroms
  11- 20 A10    mW/m2/0.1nm flux   Flux density, calibrated, erg/cm^2/s/Ang
--------------------------------------------------------------------------------
 3400.000 1.7566e-16 
 3401.534 2.1749e-16 
 3403.069 1.6536e-16 
 3404.603 1.7803e-16 
 3406.137 2.0139e-16 
 3407.671 2.3733e-16 
 3409.206 2.1641e-16 
 3410.740 1.9273e-16 
 3412.274 1.9699e-16 
 3413.809 2.3931e-16 
 3415.343 2.1991e-16 
 3416.877 2.5002e-16 
 3418.412 2.391e-16  
 3419.946 2.6022e-16 
 3421.480 2.3582e-16 
 3423.014 2.4939e-16 
 3424.549 2.2149e-16 
 3426.083 2.2078e-16 
 3427.617 1.5654e-16 
 3429.152 1.3331e-16 
 3430.686 2.1005e-16 
 3432.220 1.9106e-16 
 3433.754 1.964e-16  
 3435.289 1.5246e-16 
 3436.823 2.1036e-16 
 3438.357 1.8804e-16 
 3439.892 1.8326e-16 
 3441.426 1.8774e-16 
 3442.960 2.093e-16  
 3444.495 1.8268e-16 
 3446.029 1.8087e-16 
 3447.563 1.7001e-16 
 3449.097 1.5034e-16 
 3450.632 1.5802e-16 
 3452.166 2.0885e-16 
 3453.700 1.9359e-16 
 3455.235 1.6682e-16 
 3456.769 1.1016e-16 
 3458.303 1.4406e-16 
 3459.837 1.6663e-16 
 3461.372 1.751e-16  
 3462.906 1.8715e-16 
 3464.440 1.9247e-16 
 3465.975 1.6527e-16 
 3467.509 1.6146e-16 
 3469.043 1.7803e-16 
 3470.578 2.4758e-16 
 3472.112 1.9102e-16 
 3473.646 1.7511e-16 
 3475.180 2.2934e-16 
 3476.715 2.0684e-16 
 3478.249 1.6576e-16 
 3479.783 1.5577e-16 
 3481.318 1.9369e-16 
 3482.852 1.8736e-16 
 3484.386 1.7861e-16 
 3485.920 2.0744e-16 
 3487.455 2.1216e-16 
 3488.989 2.0761e-16 
 3490.523 1.888e-16  
 3492.058 2.148e-16  
 3493.592 1.4372e-16 
 3495.126 1.7794e-16 
 3496.661 1.8288e-16 
 3498.195 1.9295e-16 
 3499.729 1.9548e-16 
 3501.263 2.0723e-16 
 3502.798 1.6892e-16 
 3504.332 2.1073e-16 
 3505.866 1.4259e-16 
 3507.401 1.5535e-16 
 3508.935 1.6161e-16 
 3510.469 1.7145e-16 
 3512.004 1.4225e-16 
 3513.538 1.8458e-16 
 3515.072 1.8155e-16 
 3516.606 1.5186e-16 
 3518.141 1.6821e-16 
 3519.675 1.5483e-16 
 3521.209 1.9033e-16 
 3522.744 1.5825e-16 
 3524.278 1.834e-16  
 3525.812 1.8031e-16 
 3527.346 1.6851e-16 
 3528.881 1.4558e-16 
 3530.415 1.7181e-16 
 3531.949 1.6393e-16 
 3533.484 1.5706e-16 
 3535.018 1.6621e-16 
 3536.552 1.7472e-16 
 3538.087 1.8324e-16 
 3539.621 1.5978e-16 
 3541.155 1.6702e-16 
 3542.689 1.8104e-16 
 3544.224 1.8883e-16 
 3545.758 2.1174e-16 
 3547.292 1.851e-16  
 3548.827 2.0058e-16 
 3550.361 2.1024e-16 
 3551.895 1.8015e-16 
 3553.429 1.7602e-16 
 3554.964 1.9731e-16 
 3556.498 2.0377e-16 
 3558.032 1.8808e-16 
 3559.567 1.6437e-16 
 3561.101 1.7607e-16 
 3562.635 1.7682e-16 
 3564.170 1.8835e-16 
 3565.704 1.6073e-16 
 3567.238 1.6287e-16 
 3568.772 1.7277e-16 
 3570.307 1.8811e-16 
 3571.841 2.0004e-16 
 3573.375 1.9282e-16 
 3574.910 1.7033e-16 
 3576.444 1.6812e-16 
 3577.978 1.4066e-16 
 3579.512 1.6875e-16 
 3581.047 1.7995e-16 
 3582.581 1.7084e-16 
 3584.115 1.6799e-16 
 3585.650 1.8018e-16 
 3587.184 1.6749e-16 
 3588.718 1.5613e-16 
 3590.253 1.8228e-16 
 3591.787 1.7182e-16 
 3593.321 1.7567e-16 
 3594.855 1.882e-16  
 3596.390 1.758e-16  
 3597.924 1.4526e-16 
 3599.458 1.3732e-16 
 3600.993 1.6856e-16 
 3602.527 2.0028e-16 
 3604.061 2.0345e-16 
 3605.595 2.0043e-16 
 3607.130 1.8394e-16 
 3608.664 1.9651e-16 
 3610.198 1.6096e-16 
 3611.733 1.7563e-16 
 3613.267 1.8287e-16 
 3614.801 1.8061e-16 
 3616.336 1.6124e-16 
 3617.870 1.7556e-16 
 3619.404 1.9017e-16 
 3620.938 1.776e-16  
 3622.473 1.5389e-16 
 3624.007 1.7643e-16 
 3625.542 1.9371e-16 
 3627.076 1.5034e-16 
 3628.610 1.8886e-16 
 3630.144 1.8086e-16 
 3631.678 1.9763e-16 
 3633.213 1.9203e-16 
 3634.747 1.7756e-16 
 3636.281 1.8272e-16 
 3637.816 1.7501e-16 
 3639.350 1.5983e-16 
 3640.884 1.7107e-16 
 3642.419 1.6696e-16 
 3643.953 1.9756e-16 
 3645.487 1.9213e-16 
 3647.021 1.6038e-16 
 3648.556 1.2058e-16 
 3650.090 1.6799e-16 
 3651.625 1.539e-16  
 3653.159 1.0399e-16 
 3654.693 1.2026e-16 
 3656.227 1.5405e-16 
 3657.761 1.3376e-16 
 3659.296 1.5881e-16 
 3660.830 1.6823e-16 
 3662.365 1.5804e-16 
 3663.899 1.5582e-16 
 3665.433 1.5841e-16 
 3666.967 1.3811e-16 
 3668.502 1.6244e-16 
 3670.036 1.4803e-16 
 3671.570 1.4468e-16 
 3673.104 1.5643e-16 
 3674.639 1.4389e-16 
 3676.173 1.8668e-16 
 3677.708 1.8281e-16 
 3679.242 1.9604e-16 
 3680.776 1.9401e-16 
 3682.310 1.5405e-16 
 3683.845 1.5553e-16 
 3685.379 1.6524e-16 
 3686.913 1.6363e-16 
 3688.448 1.6818e-16 
 3689.982 1.5079e-16 
 3691.516 1.5105e-16 
 3693.050 1.5432e-16 
 3694.585 1.2286e-16 
 3696.119 1.6017e-16 
 3697.653 1.7182e-16 
 3699.188 1.9514e-16 
 3700.722 1.8798e-16 
 3702.256 2.0416e-16 
 3703.791 1.7284e-16 
 3705.325 1.573e-16  
 3706.859 1.7103e-16 
 3708.393 1.7969e-16 
 3709.928 1.7349e-16 
 3711.462 1.8806e-16 
 3712.996 1.7893e-16 
 3714.531 1.6725e-16 
 3716.065 1.9797e-16 
 3717.599 1.5793e-16 
 3719.133 1.9306e-16 
 3720.668 1.6819e-16 
 3722.202 1.5356e-16 
 3723.736 1.3768e-16 
 3725.271 1.3708e-16 
 3726.805 1.6063e-16 
 3728.339 1.8846e-16 
 3729.874 1.5561e-16 
 3731.408 1.5378e-16 
 3732.942 1.405e-16  
 3734.476 1.5072e-16 
 3736.011 1.3899e-16 
 3737.545 1.3787e-16 
 3739.079 1.5332e-16 
 3740.614 1.4139e-16 
 3742.148 1.5192e-16 
 3743.682 1.7673e-16 
 3745.216 1.626e-16  
 3746.751 1.4054e-16 
 3748.285 1.2975e-16 
 3749.819 1.2296e-16 
 3751.354 1.5207e-16 
 3752.888 1.532e-16  
 3754.422 1.33e-16   
 3755.957 1.6537e-16 
 3757.491 1.6424e-16 
 3759.025 1.2913e-16 
 3760.559 1.2383e-16 
 3762.094 1.4071e-16 
 3763.628 1.5361e-16 
 3765.162 1.5117e-16 
 3766.697 1.4383e-16 
 3768.231 1.2655e-16 
 3769.765 1.2893e-16 
 3771.299 1.4799e-16 
 3772.834 1.5075e-16 
 3774.368 1.4701e-16 
 3775.902 1.6365e-16 
 3777.437 1.5811e-16 
 3778.971 1.4662e-16 
 3780.505 1.3749e-16 
 3782.040 1.2615e-16 
 3783.574 1.2919e-16 
 3785.108 1.2462e-16 
 3786.642 1.6107e-16 
 3788.177 1.5524e-16 
 3789.711 1.34e-16   
 3791.245 1.5026e-16 
 3792.780 1.6575e-16 
 3794.314 1.5786e-16 
 3795.848 1.5958e-16 
 3797.383 1.5019e-16 
 3798.917 1.3273e-16 
 3800.451 1.4122e-16 
 3801.985 1.5624e-16 
 3803.520 1.5083e-16 
 3805.054 1.281e-16  
 3806.588 1.6274e-16 
 3808.123 1.7214e-16 
 3809.657 1.2961e-16 
 3811.191 1.4144e-16 
 3812.725 1.5086e-16 
 3814.260 1.5875e-16 
 3815.794 1.6649e-16 
 3817.328 1.7397e-16 
 3818.863 1.4616e-16 
 3820.397 1.5655e-16 
 3821.931 1.5266e-16 
 3823.466 1.4826e-16 
 3825.000 1.3882e-16 
 3826.534 1.3497e-16 
 3828.068 1.4801e-16 
 3829.603 1.4453e-16 
 3831.137 1.4416e-16 
 3832.671 1.4689e-16 
 3834.206 1.5847e-16 
 3835.740 1.4168e-16 
 3837.274 1.5577e-16 
 3838.808 1.6328e-16 
 3840.343 1.4624e-16 
 3841.877 1.4788e-16 
 3843.411 1.5045e-16 
 3844.946 1.5651e-16 
 3846.480 1.5799e-16 
 3848.014 1.6286e-16 
 3849.549 1.6733e-16 
 3851.083 1.5883e-16 
 3852.617 1.668e-16  
 3854.151 1.5302e-16 
 3855.686 1.3655e-16 
 3857.220 1.4734e-16 
 3858.754 1.4963e-16 
 3860.289 1.5297e-16 
 3861.823 1.2932e-16 
 3863.357 1.3315e-16 
 3864.891 1.7127e-16 
 3866.426 1.669e-16  
 3867.960 1.415e-16  
 3869.494 1.5534e-16 
 3871.029 1.7452e-16 
 3872.563 1.4902e-16 
 3874.097 1.3593e-16 
 3875.632 1.6975e-16 
 3877.166 1.5096e-16 
 3878.700 1.407e-16  
 3880.234 1.4312e-16 
 3881.769 1.4016e-16 
 3883.303 1.3712e-16 
 3884.837 1.4622e-16 
 3886.372 1.4131e-16 
 3887.906 1.4357e-16 
 3889.440 1.3657e-16 
 3890.974 1.3742e-16 
 3892.509 1.4855e-16 
 3894.043 1.4067e-16 
 3895.577 1.4003e-16 
 3897.112 1.4474e-16 
 3898.646 1.4394e-16 
 3900.180 1.3463e-16 
 3901.715 1.3461e-16 
 3903.249 1.2879e-16 
 3904.783 1.4096e-16 
 3906.317 1.6736e-16 
 3907.852 1.6488e-16 
 3909.386 1.2479e-16 
 3910.920 1.3408e-16 
 3912.455 1.3816e-16 
 3913.989 1.3768e-16 
 3915.523 1.3045e-16 
 3917.057 1.43e-16   
 3918.592 1.4027e-16 
 3920.126 1.3674e-16 
 3921.660 1.2855e-16 
 3923.195 1.3302e-16 
 3924.729 1.3593e-16 
 3926.263 1.3485e-16 
 3927.798 1.4376e-16 
 3929.332 1.2754e-16 
 3930.866 1.4435e-16 
 3932.400 1.3831e-16 
 3933.935 1.4021e-16 
 3935.469 1.5453e-16 
 3937.003 1.6053e-16 
 3938.538 1.5026e-16 
 3940.072 1.6248e-16 
 3941.606 1.7132e-16 
 3943.140 1.7423e-16 
 3944.675 1.4024e-16 
 3946.209 1.5234e-16 
 3947.743 1.4331e-16 
 3949.278 1.6716e-16 
 3950.812 1.5336e-16 
 3952.346 1.3851e-16 
 3953.881 1.7379e-16 
 3955.415 1.6849e-16 
 3956.949 1.6173e-16 
 3958.483 1.502e-16  
 3960.018 1.4274e-16 
 3961.552 1.4334e-16 
 3963.086 1.4657e-16 
 3964.621 1.5128e-16 
 3966.155 1.5693e-16 
 3967.689 1.3885e-16 
 3969.223 1.4547e-16 
 3970.758 1.5603e-16 
 3972.292 1.6479e-16 
 3973.826 1.5878e-16 
 3975.361 1.5543e-16 
 3976.895 1.5736e-16 
 3978.429 1.3763e-16 
 3979.964 1.4212e-16 
 3981.498 1.3755e-16 
 3983.032 1.68e-16   
 3984.566 1.6246e-16 
 3986.101 1.5008e-16 
 3987.635 1.4985e-16 
 3989.169 1.425e-16  
 3990.704 1.287e-16  
 3992.238 1.3867e-16 
 3993.772 1.3768e-16 
 3995.307 1.5234e-16 
 3996.841 1.6656e-16 
 3998.375 1.7178e-16 
 3999.909 1.5848e-16 
 4001.444 1.5116e-16 
 4002.978 1.5226e-16 
 4004.512 1.5417e-16 
 4006.047 1.6344e-16 
 4007.581 1.5336e-16 
 4009.115 1.4831e-16 
 4010.649 1.6035e-16 
 4012.184 1.678e-16  
 4013.718 1.6781e-16 
 4015.252 1.6066e-16 
 4016.787 1.6837e-16 
 4018.321 1.668e-16  
 4019.855 1.5111e-16 
 4021.390 1.4621e-16 
 4022.924 1.3992e-16 
 4024.458 1.5028e-16 
 4025.992 1.4017e-16 
 4027.527 1.4764e-16 
 4029.061 1.4451e-16 
 4030.595 1.5348e-16 
 4032.130 1.9271e-16 
 4033.664 1.5571e-16 
 4035.198 1.6254e-16 
 4036.732 1.5335e-16 
 4038.267 1.4781e-16 
 4039.801 1.6189e-16 
 4041.335 1.443e-16  
 4042.870 1.5347e-16 
 4044.404 1.3486e-16 
 4045.938 1.4451e-16 
 4047.473 2.2241e-16 
 4049.007 1.5632e-16 
 4050.541 1.2839e-16 
 4052.075 1.5292e-16 
 4053.610 1.6401e-16 
 4055.144 1.3764e-16 
 4056.678 1.4346e-16 
 4058.213 1.4111e-16 
 4059.747 1.5156e-16 
 4061.281 1.4164e-16 
 4062.815 1.4136e-16 
 4064.350 1.436e-16  
 4065.884 1.5596e-16 
 4067.418 1.5149e-16 
 4068.953 1.476e-16  
 4070.487 1.698e-16  
 4072.021 1.4201e-16 
 4073.556 1.503e-16  
 4075.090 1.3395e-16 
 4076.624 1.6144e-16 
 4078.158 1.5343e-16 
 4079.693 1.2181e-16 
 4081.227 1.4568e-16 
 4082.761 1.6536e-16 
 4084.296 1.6014e-16 
 4085.830 1.2861e-16 
 4087.364 1.3004e-16 
 4088.898 1.2361e-16 
 4090.433 1.4183e-16 
 4091.967 1.3797e-16 
 4093.501 1.4589e-16 
 4095.036 1.464e-16  
 4096.570 1.3217e-16 
 4098.104 1.2982e-16 
 4099.639 1.3164e-16 
 4101.173 1.3613e-16 
 4102.707 1.2308e-16 
 4104.242 1.2681e-16 
 4105.776 1.454e-16  
 4107.310 1.5553e-16 
 4108.844 1.4388e-16 
 4110.379 1.4367e-16 
 4111.913 1.3765e-16 
 4113.447 1.4309e-16 
 4114.981 1.3944e-16 
 4116.516 1.4053e-16 
 4118.050 1.5036e-16 
 4119.584 1.5396e-16 
 4121.119 1.5297e-16 
 4122.653 1.4497e-16 
 4124.188 1.5448e-16 
 4125.722 1.6577e-16 
 4127.256 1.5786e-16 
 4128.790 1.5226e-16 
 4130.325 1.4092e-16 
 4131.859 1.5134e-16 
 4133.393 1.5411e-16 
 4134.927 1.4451e-16 
 4136.462 1.6683e-16 
 4137.996 1.4568e-16 
 4139.530 1.361e-16  
 4141.064 1.5556e-16 
 4142.599 1.498e-16  
 4144.133 1.6565e-16 
 4145.667 1.6558e-16 
 4147.202 1.5326e-16 
 4148.736 1.4248e-16 
 4150.271 1.4543e-16 
 4151.805 1.5124e-16 
 4153.339 1.3853e-16 
 4154.873 1.4451e-16 
 4156.408 1.4926e-16 
 4157.942 1.4772e-16 
 4159.476 1.5109e-16 
 4161.010 1.3713e-16 
 4162.545 1.2828e-16 
 4164.079 1.2874e-16 
 4165.613 1.5417e-16 
 4167.147 1.5187e-16 
 4168.682 1.3025e-16 
 4170.216 1.4311e-16 
 4171.750 1.5542e-16 
 4173.285 1.28e-16   
 4174.819 1.2994e-16 
 4176.354 1.411e-16  
 4177.888 1.2645e-16 
 4179.422 1.3593e-16 
 4180.956 1.5657e-16 
 4182.491 1.1338e-16 
 4184.025 1.4296e-16 
 4185.559 1.6254e-16 
 4187.093 1.4452e-16 
 4188.628 1.4736e-16 
 4190.162 1.363e-16  
 4191.696 1.4083e-16 
 4193.230 1.5187e-16 
 4194.765 1.3507e-16 
 4196.299 1.2907e-16 
 4197.833 1.4369e-16 
 4199.368 1.6391e-16 
 4200.902 1.6518e-16 
 4202.437 1.4906e-16 
 4203.971 1.4326e-16 
 4205.505 1.3731e-16 
 4207.039 1.5131e-16 
 4208.574 1.4819e-16 
 4210.108 1.1603e-16 
 4211.642 1.4337e-16 
 4213.176 1.3392e-16 
 4214.711 1.4291e-16 
 4216.245 1.5532e-16 
 4217.779 1.4603e-16 
 4219.313 1.4342e-16 
 4220.848 1.5148e-16 
 4222.382 1.4597e-16 
 4223.917 1.4552e-16 
 4225.451 1.3747e-16 
 4226.985 1.5678e-16 
 4228.520 1.574e-16  
 4230.054 1.3133e-16 
 4231.588 1.1699e-16 
 4233.122 1.4952e-16 
 4234.657 1.521e-16  
 4236.191 1.2816e-16 
 4237.725 1.1998e-16 
 4239.259 1.2548e-16 
 4240.794 1.2937e-16 
 4242.328 1.49e-16   
 4243.862 1.4997e-16 
 4245.396 1.3507e-16 
 4246.931 1.4956e-16 
 4248.465 1.2899e-16 
 4250.000 1.1048e-16 
 4251.534 1.5363e-16 
 4253.068 1.3946e-16 
 4254.603 1.3072e-16 
 4256.137 1.3705e-16 
 4257.671 1.2542e-16 
 4259.205 1.2887e-16 
 4260.740 1.3137e-16 
 4262.274 1.3505e-16 
 4263.808 1.2614e-16 
 4265.342 1.3047e-16 
 4266.877 1.412e-16  
 4268.411 1.3846e-16 
 4269.945 1.4402e-16 
 4271.479 1.2746e-16 
 4273.014 1.1789e-16 
 4274.548 1.2212e-16 
 4276.083 1.3166e-16 
 4277.617 1.4842e-16 
 4279.151 1.3251e-16 
 4280.686 1.4387e-16 
 4282.220 1.4506e-16 
 4283.754 1.6054e-16 
 4285.288 1.42e-16   
 4286.823 1.2251e-16 
 4288.357 1.3834e-16 
 4289.891 1.5651e-16 
 4291.425 1.5164e-16 
 4292.960 1.4224e-16 
 4294.494 1.1287e-16 
 4296.028 1.2146e-16 
 4297.562 1.4006e-16 
 4299.097 1.2657e-16 
 4300.631 1.2707e-16 
 4302.166 1.3297e-16 
 4303.700 1.4033e-16 
 4305.234 1.4034e-16 
 4306.769 1.307e-16  
 4308.303 1.2157e-16 
 4309.837 1.2261e-16 
 4311.371 1.1526e-16 
 4312.906 1.123e-16  
 4314.440 1.3305e-16 
 4315.974 1.4959e-16 
 4317.508 1.1393e-16 
 4319.043 1.1321e-16 
 4320.577 1.3097e-16 
 4322.111 1.4553e-16 
 4323.646 1.6026e-16 
 4325.180 1.3349e-16 
 4326.714 1.1995e-16 
 4328.249 1.2017e-16 
 4329.783 1.2305e-16 
 4331.317 1.3232e-16 
 4332.852 1.3006e-16 
 4334.386 1.3577e-16 
 4335.920 1.2591e-16 
 4337.455 1.2978e-16 
 4338.989 1.218e-16  
 4340.523 1.3998e-16 
 4342.057 1.4229e-16 
 4343.591 1.1823e-16 
 4345.126 1.2199e-16 
 4346.660 1.3726e-16 
 4348.194 1.3892e-16 
 4349.729 1.3553e-16 
 4351.263 1.4931e-16 
 4352.797 1.459e-16  
 4354.332 1.3357e-16 
 4355.866 1.6298e-16 
 4357.400 1.7587e-16 
 4358.935 1.7632e-16 
 4360.469 1.6753e-16 
 4362.003 1.0783e-16 
 4363.538 1.3487e-16 
 4365.072 1.4877e-16 
 4366.606 1.4286e-16 
 4368.140 1.5956e-16 
 4369.674 1.4846e-16 
 4371.209 1.3732e-16 
 4372.743 1.3974e-16 
 4374.277 1.4211e-16 
 4375.812 1.4946e-16 
 4377.346 1.4504e-16 
 4378.880 1.7248e-16 
 4380.415 1.6721e-16 
 4381.949 1.5503e-16 
 4383.483 1.2554e-16 
 4385.018 1.2602e-16 
 4386.552 1.2947e-16 
 4388.086 1.3973e-16 
 4389.621 1.4271e-16 
 4391.155 1.5374e-16 
 4392.689 1.6607e-16 
 4394.223 1.567e-16  
 4395.757 1.4906e-16 
 4397.292 1.6265e-16 
 4398.826 1.5708e-16 
 4400.360 1.4178e-16 
 4401.895 1.5725e-16 
 4403.429 1.3799e-16 
 4404.963 1.2434e-16 
 4406.498 1.2556e-16 
 4408.032 1.3243e-16 
 4409.566 1.4779e-16 
 4411.101 1.7043e-16 
 4412.635 1.5482e-16 
 4414.169 1.3276e-16 
 4415.704 1.5582e-16 
 4417.238 1.5096e-16 
 4418.772 1.3552e-16 
 4420.306 1.2592e-16 
 4421.841 1.4686e-16 
 4423.375 1.5719e-16 
 4424.909 1.2706e-16 
 4426.443 1.3407e-16 
 4427.978 1.2686e-16 
 4429.512 1.246e-16  
 4431.046 1.5779e-16 
 4432.581 1.5024e-16 
 4434.115 1.2125e-16 
 4435.649 1.2626e-16 
 4437.184 1.4942e-16 
 4438.718 1.4092e-16 
 4440.252 1.3393e-16 
 4441.787 1.536e-16  
 4443.321 1.4936e-16 
 4444.855 1.366e-16  
 4446.389 1.6153e-16 
 4447.924 1.3877e-16 
 4449.458 1.34e-16   
 4450.992 1.4378e-16 
 4452.526 1.4566e-16 
 4454.061 1.4616e-16 
 4455.595 1.4385e-16 
 4457.129 1.3044e-16 
 4458.664 1.3357e-16 
 4460.198 1.3657e-16 
 4461.732 1.4503e-16 
 4463.267 1.3008e-16 
 4464.801 1.2969e-16 
 4466.335 1.042e-16  
 4467.870 1.1928e-16 
 4469.404 1.3719e-16 
 4470.938 1.7068e-16 
 4472.472 1.4257e-16 
 4474.007 1.49e-16   
 4475.541 1.4131e-16 
 4477.075 1.3694e-16 
 4478.609 1.3317e-16 
 4480.144 1.4359e-16 
 4481.678 1.4519e-16 
 4483.212 1.3113e-16 
 4484.747 1.1789e-16 
 4486.281 1.2319e-16 
 4487.815 1.4368e-16 
 4489.350 1.6941e-16 
 4490.884 1.4231e-16 
 4492.418 1.2417e-16 
 4493.953 1.3373e-16 
 4495.487 1.1361e-16 
 4497.021 1.4571e-16 
 4498.555 1.2954e-16 
 4500.090 1.4013e-16 
 4501.624 1.2402e-16 
 4503.158 1.0105e-16 
 4504.692 1.2228e-16 
 4506.227 1.2724e-16 
 4507.761 1.453e-16  
 4509.295 1.2694e-16 
 4510.830 1.2046e-16 
 4512.364 1.3036e-16 
 4513.898 9.3157e-17 
 4515.433 1.1737e-16 
 4516.967 1.2322e-16 
 4518.501 1.4734e-16 
 4520.036 1.1975e-16 
 4521.570 1.2774e-16 
 4523.104 1.4907e-16 
 4524.638 1.2774e-16 
 4526.173 1.0438e-16 
 4527.707 1.1751e-16 
 4529.241 1.3242e-16 
 4530.775 1.4804e-16 
 4532.310 1.4041e-16 
 4533.844 1.3837e-16 
 4535.378 1.1913e-16 
 4536.913 1.3293e-16 
 4538.447 1.3408e-16 
 4539.981 1.2963e-16 
 4541.516 1.0792e-16 
 4543.050 1.0579e-16 
 4544.584 1.207e-16  
 4546.119 1.3632e-16 
 4547.653 1.2999e-16 
 4549.187 1.3352e-16 
 4550.721 1.5062e-16 
 4552.256 1.4188e-16 
 4553.790 1.3508e-16 
 4555.324 1.2998e-16 
 4556.858 1.3812e-16 
 4558.393 1.4022e-16 
 4559.927 1.0466e-16 
 4561.461 1.1841e-16 
 4562.996 1.1255e-16 
 4564.530 1.1788e-16 
 4566.064 1.2421e-16 
 4567.599 1.478e-16  
 4569.133 1.4453e-16 
 4570.667 1.2543e-16 
 4572.202 1.3215e-16 
 4573.736 1.3839e-16 
 4575.270 1.3446e-16 
 4576.804 1.1693e-16 
 4578.339 1.2734e-16 
 4579.873 1.1825e-16 
 4581.407 1.184e-16  
 4582.941 1.3551e-16 
 4584.476 1.3674e-16 
 4586.010 1.3952e-16 
 4587.544 1.2518e-16 
 4589.079 1.3386e-16 
 4590.613 1.337e-16  
 4592.147 1.3612e-16 
 4593.682 1.3264e-16 
 4595.216 1.2803e-16 
 4596.750 1.3394e-16 
 4598.285 1.3363e-16 
 4599.819 1.3841e-16 
 4601.353 1.2414e-16 
 4602.887 1.0639e-16 
 4604.422 1.2165e-16 
 4605.956 1.2559e-16 
 4607.490 1.102e-16  
 4609.024 1.1466e-16 
 4610.559 1.2787e-16 
 4612.093 1.3964e-16 
 4613.627 1.327e-16  
 4615.162 1.1759e-16 
 4616.696 1.4988e-16 
 4618.230 1.315e-16  
 4619.765 1.154e-16  
 4621.299 1.2905e-16 
 4622.833 1.2092e-16 
 4624.368 1.2725e-16 
 4625.902 1.387e-16  
 4627.436 1.3781e-16 
 4628.970 1.4623e-16 
 4630.505 1.2611e-16 
 4632.039 1.3393e-16 
 4633.573 1.2923e-16 
 4635.107 1.2449e-16 
 4636.642 1.174e-16  
 4638.176 1.2637e-16 
 4639.710 1.2591e-16 
 4641.245 1.1265e-16 
 4642.779 1.1256e-16 
 4644.313 1.1751e-16 
 4645.848 1.1364e-16 
 4647.382 1.0102e-16 
 4648.917 1.0834e-16 
 4650.451 1.0819e-16 
 4651.985 1.2563e-16 
 4653.519 1.1202e-16 
 4655.053 1.1765e-16 
 4656.588 1.1313e-16 
 4658.122 1.2328e-16 
 4659.656 1.2312e-16 
 4661.190 1.2782e-16 
 4662.725 1.3218e-16 
 4664.259 1.356e-16  
 4665.793 1.1672e-16 
 4667.328 1.1916e-16 
 4668.862 1.2791e-16 
 4670.396 1.1662e-16 
 4671.931 1.2857e-16 
 4673.465 1.258e-16  
 4675.000 1.1537e-16 
 4676.534 1.2522e-16 
 4678.068 1.0359e-16 
 4679.602 1.2741e-16 
 4681.136 1.501e-16  
 4682.671 1.187e-16  
 4684.205 1.1812e-16 
 4685.739 1.0975e-16 
 4687.273 1.0106e-16 
 4688.808 1.1145e-16 
 4690.342 9.6087e-17 
 4691.876 8.9878e-17 
 4693.411 1.0847e-16 
 4694.945 9.7405e-17 
 4696.479 9.716e-17  
 4698.014 1.1271e-16 
 4699.548 1.1287e-16 
 4701.083 1.2207e-16 
 4702.617 1.2566e-16 
 4704.151 1.1062e-16 
 4705.685 1.1923e-16 
 4707.220 1.1393e-16 
 4708.754 1.054e-16  
 4710.288 1.1373e-16 
