# Spectrum combined from four exposures, the header of the first one is shown here
# SIMPLE  =                    T / Fits standard                                  
# BITPIX  =                   16 / Bits per pixel                                 
# NAXIS   =                    0 / Number of axes                                 
# EXTEND  =                    T / File may contain extensions                    
# ORIGIN  = 'NOAO-IRAF FITS Image Kernel July 2003' / FITS file originator        
# DATE    = '2020-08-26T17:50:05' / Date FITS file was generated                  
# IRAF-TLM= '2020-08-26T20:47:15' / Time of last modification                     
# COMMENT   FITS (Flexible Image Transport System) format is defined in 'Astronomy
# COMMENT   and Astrophysics', volume 376, page 359; bibcode: 2001A&A...376..359H 
# INSTRUME= 'GMOS-N  '           / Instrument used to acquire data                
# SEQEXVER= '20200825-60abaa92'  / Seqexec version                                
# OBJECT  = 'ZTF20abwzqzo'       / Object Name                                    
# OBSTYPE = 'OBJECT  '           / Observation type                               
# OBSCLASS= 'science '           / Observe class                                  
# GEMPRGID= 'GN-2020B-Q-901'     / Gemini programme ID                            
# OBSID   = 'GN-2020B-Q-901-49'  / Observation ID / Data label                    
# DATALAB = 'GN-2020B-Q-901-49-002' / DHS data label                              
# OBSERVER= 'B. Cooper'          / Observer                                       
# OBSERVAT= 'Gemini-North'       / Name of telescope (Gemini-North|Gemini-South)  
# TELESCOP= 'Gemini-North'       / Gemini-North                                   
# PARALLAX=                   0. / Parallax of Target                             
# RADVEL  =                   0. / Heliocentric Radial Velocity                   
# EPOCH   =                2000. / Epoch for Target coordinates                   
# EQUINOX =                2000. / Equinox of coordinate system                   
# TRKEQUIN=                2000. / Tracking equinox                               
# SSA     = 'J. Berghuis'        / SSA                                            
# RA      =     41.5137916666667 / Right Ascension                                
# DEC     =     3.32994444444444 / Declination of Target                          
# ELEVATIO=     59.1515305555556 / Current Elevation                              
# AZIMUTH =     118.751838888889 / Current Azimuth                                
# CRPA    =     4.58115293616703 / Current Cass Rotator Position Angle            
# HA      = '-01:47:12.13'       / Telescope hour angle                           
# LT      = '03:00:51.2'         / Local time at start of observation             
# TRKFRAME= 'FK5     '           / Tracking co-ordinate                           
# DECTRACK=                   0. / Differential tracking rate Dec                 
# TRKEPOCH=     59087.5288115881 / Differential tracking reference epoch          
# RATRACK =                   0. / Differential tracking rate RA                  
# FRAME   = 'FK5     '           / Target coordinate system                       
# PMDEC   =                   0. / Proper Motion in Declination                   
# PMRA    =                   0. / Proper Motion in RA                            
# WAVELENG=                5200. / Effective Target Wavelength                    
# RAWIQ   = '85-percentile'      / Raw Image Quality                              
# RAWCC   = '50-percentile'      / Raw Cloud Cover                                
# RAWWV   = 'UNKNOWN '           / Raw Water Vapour/Transparency                  
# RAWBG   = 'UNKNOWN '           / Raw Background                                 
# RAWPIREQ= 'YES     '                                                            
# RAWGEMQA= 'USABLE  '                                                            
# CGUIDMOD= 'Basic   '           / Carousel Mode                                  
# UT      = '13:00:51.7'         / UT at observation start                        
# M2BAFFLE= 'VISIBLE '           / Position of M2 baffle                          
# M2CENBAF= 'CLOSED  '           / Position of M2 central hole baffle             
# ST      = '00:59:55.7'         / Sidereal time at the start of the exposure     
# XOFFSET =    0.174951739158709 / Telescope offset in x in arcsec                
# YOFFSET =    0.476411087766997 / Telescope offset in y in arcsec                
# POFFSET =    0.175799585570408 / Telescope offset in p in arcsec                
# QOFFSET =    0.476098877645456 / Telescope offset in q in arcsec                
# RAOFFSET=   -0.261948178552181 / Telescope offset in RA in arcsec               
# DECOFFSE=     0.43469390073382 / Telescope offset in DEC in arcsec              
# RATRGOFF=                   0. / Target offset in RA in arcsec                  
# DECTRGOF=                   0. / Target offset in DEC in arcsec                 
# PA      =               308.66 / Sky Position Angle at start of exposure        
# IAA     =              179.898 / Instrument Alignment Angle                     
# SFRT2   =     178.841748696984 / Science fold rotation angle (degrees)          
# SFTILT  =              44.9296 / Science fold tilt angle (degrees)              
# SFLINEAR=               -1.997 / Science fold linear position (mm)              
# AOFOLD  = 'park-pos.'          / AO Pick-Off Mirror Position                    
# PWFS1_ST= 'parked  '           / PWFS1 probe state (frozen,guiding,parked)      
# PWFS2_ST= 'parked  '           / PWFS2 probe state (frozen,guiding,parked)      
# OIWFS_ST= 'guiding '           / OIWFS probe state (frozen,guiding,parked)      
# AOWFS_ST= 'parked  '           / AOWFS probe state (frozen,guiding,parked)      
# SCIBAND =                    1 / Science Ranking Band                           
# REQIQ   = 'Any     '           / Requested Image Quality                        
# REQCC   = '70-percentile'      / Requested Cloud Cover                          
# REQBG   = 'Any     '           / Requested Background                           
# REQWV   = 'Any     '           / Requested Water Vapour                         
# REQMAXAM=                   2. / Requested Maximum Airmass                      
# REQMINAM=                   1. / Requested Minimum Airmass                      
# NUMREQTW=                    1 / Number of Requested Timing Window REQTW entries
# REQTWS01= '2020-08-26T12:29:04.943' / Requested Timing Window 01 Start (UTC)    
# REQTWD01=               86400. / Requested Timing Window 01 Duration [seconds]  
# REQTWN01=                    0 / Requested Timing Window 01 Number of Repeats   
# REQTWP01=                   0. / Requested Timing Window 01 Repeat Period [secon
# OIARA   =             41.46215 / RA of OIWFS guide star                         
# OIADEC  =             3.324625 / Declination of OIWFS guide star                
# OIARV   =                   0. / OIWFS Heliocentric Radial Velocity             
# OIAWAVEL=                6500. / OIWFS Effective Target Wavelength              
# OIAEPOCH=                2000. / Epoch for OIWFS guide star coordinates         
# OIAEQUIN=                2000. / Equinox for OIWFS guide star coordinates       
# OIAFRAME= 'FK5     '           / OIWFS Target co-ordinate system                
# OIAOBJEC= '467-003673'         / Object Name for OIWFS, Chop A                  
# OIAPMDEC= -0.00260000000184945 / OIWFS Proper Motion in Declination             
# OIAPMRA = 4.00674350418113E-05 / OIWFS Proper Motion in RA                      
# OIAPARAL=                   0. / OIWFS Parallax of Target                       
# OIFREQ  =                 200. / OIWFS sampling frequency (Hz)                  
# HUMIDITY=                16.46 / The Relative Humidity (fraction, 0..101).      
# TAMBIENT=                 2.12 / The ambient temp (C).                          
# TAMBIEN2=               35.816 / The ambient temp (F).                          
# PRESSURE=     462.900501533147 / The atmospheric pressure (mm Hg).              
# PRESSUR2=               61715. / The atmospheric pressure (Pa).                 
# DEWPOINT=    -20.9994296995032 / The dew point (C).                             
# DEWPOIN2=     -5.7989734591057 / The dew point (F).                             
# WINDSPEE=            2.4950534 / The wind speed (m/s).                          
# WINDSPE2=     5.58127550107373 / The wind speed (mph).                          
# WINDDIRE=                65.61 / The wind direction (degrees).                  
# INPORT  =                    5 / Number of ISS port where GMOS was located      
# GMOSCC  = 'GMOS-N (V7-13)'     / GMOS components controller s/w                 
# TIME-OBS= '13:00:52.2'         / Time of observation                            
# PREIMAGE=                    F / MOS pre-imaging                                
# CONID   = 'ARC-III '           / Detector controller ID                         
# DETECTOR= 'GMOS-N + Hamamatsu' / Detector name                                  
# DEWAR   = 'Lab Cryostat'       / Dewar name                                     
# ARRYTMPD=             -102.657 / Array temperature D (Celsius)                  
# ARRYTMPA=              -96.234 / Array temperature A (Celsius)                  
# ARRYTMPB=              -95.858 / Array temperature B (Celsius)                  
# ARRYTMPC=              -95.076 / Array temperature C (Celsius)                  
# ARRYTSET=               -102.7 / Array temperature Setpoint (Celsius)           
# DETSIZE = '[1:6144,1:4224]'    / Detector size                                  
# NCCDS   =                    3 / Number of CCD chips                            
# NAMPS   =                    4 / Number of amplifiers                           
# SHUTTER = 'OPEN    '           / Shutter state during observation               
# AMPINTEG=                11880 / Amplifier integration time                     
# OBSEPOCH=     2020.65172428619 / Epoch at start of exposure                     
# TIMESYS = 'UTC     '           / Time system used                               
# DATE-OBS= '2020-08-26'         / UT Date of observation (YYYY-MM-DD)            
# GMOSTHT = 'WARNING '           / Shutter health                                 
# NSUBEXP =                    1 / Number of sub exposures                        
# UTSTART = '13:00:57.6167'      / UT at observation start                        
# UTEND   = '13:10:57.6167'      / UT at observation end                          
# EXPTIME =                 600. / Exposure time in seconds                       
# ELAPSED =                 600. / Elapsed observation time in seconds            
# DARKTIME=     621.083354949951 / Dark current integration in seconds            
# MASKID  =             10005354 / Mask/IFU barcode                               
# MASKNAME= '1.0arcsec'          / Mask name                                      
# MASKTYP =                    1 / Mask/IFU type (0=none/-1=IFU/1=mask)           
# MASKLOC =                    0 / Mask/IFU location (-1=unknown/0=FP/1=cassette) 
# FILTER1 = 'open1-6 '           / Filter 1 name                                  
# FILTID1 =             20000018 / Filter 1 barcode                               
# FILTER2 = 'open2-8 '           / Filter 2 name                                  
# FILTID2 =             20000008 / Filter 2 barcode                               
# GRATING = 'B600+_G5307'        / Grating name                                   
# GRATID  =             30000018 / Grating barcode                                
# GRWLEN  =                 520. / Grating wavelength at slit (nm)                
# CENTWAVE=                 520. / Central wavelength (nm)                        
# GRORDER =                    1 / Grating order                                  
# GRTILT  =     55.0884895324707 / Grating tilt angle (degrees)                   
# GRSTEP  =     5887.98372465079 / Requested grating motor step position          
# DTAX    =                  84. / Detector translation X position (microns)      
# DTAY    =                  92. / Detector translation Y position (microns)      
# DTAZ    =                1862. / Detector translation Z position (microns)      
# DTAZST  =                1862. / Focus at observation start (microns)           
# DTAZEN  =                1862. / Focus at observation end (microns)             
# DTAZME  =                1862. / Mean focus during observation (microns)        
# DTMODE  = 'FOLLOW-XY'          / Detector translation stage mode                
# ADCMODE = 'STOP    '           / ADC mode                                       
# GMOSDC  = 'gmosdc-6.10'        / GMOS detector controller s/w                   
# DETTYPE = 'S10892-N'           / Detector array type                            
# DETID   = 'BI13-20-4k-1,BI12-09-4k-2,BI13-18-4k-2' / Chip IDs                   
# EXPOSURE=                 600. / Requested exposure time in seconds             
# ADCUSED =                    1 / ADC used? (0=yes/1=no)                         
# DETNROI =                    1 / No. regions of interest                        
# ADCENPST=                   0. / Start entrance prism angle of ADC              
# ADCENPEN=                   0. / End entrance prism angle of ADC                
# ADCENPME=                   0. / Mean entrance prism angle of ADC               
# ADCEXPST=                   0. / Start exit prism angle of ADC                  
# ADCEXPEN=                   0. / End exit prism angle of ADC                    
# ADCEXPME=                   0. / Mean exit prism angle of ADC                   
# ADCWLEN1=                   0. / Lower wavelength for ADC calculation           
# ADCWLEN2=                   0. / Upper wavelength for ADC calculation           
# DETRO1X =                    1 / ROI 1 X start                                  
# DETRO1XS=                 3072 / ROI 1 X size                                   
# DETRO1Y =                    1 / ROI 1 Y start                                  
# DETRO1YS=                 2112 / ROI 1 Y size                                   
# AIRMASS =     1.15188990932019 / Mean airmass for the observation               
# AMSTART =     1.16440957624516 / Airmass at start of exposure                   
# AMEND   =     1.13985420517773 / Airmass at end of exposure                     
# PROP_MD =                    F / Proprietary Metadata                           
# RELEASE = '2021-08-26'         / End of proprietary period YYY-MM-DD            
# NSCIEXT =                    1 / Number of science extensions                   
# PIXSCALE=               0.1614 / Pixel scale in Y in arcsec/pixel               
# NEXTEND =                    2 / Number of extensions                           
# OBSMODE = 'LONGSLIT'           / Observing mode (IMAGE|IFU|MOS|LONGSLIT)        
# GEM-TLM = '2020-08-26T20:46:47' / UT Last modification with GEMINI              
# GPREPARE= '2020-08-26T17:50:05' / UT Time stamp for GPREPARE                    
# TRIMMED = 'yes     '           / Overscan section trimmed                       
# GGAIN   = '2020-08-26T17:50:23' / UT Time stamp for GGAIN                       
# BIASIM  = 'zero    '           / Bias image used by GIREDUCE                    
# GIREDUCE= '2020-08-26T17:50:23' / UT Time stamp for GIREDUCE                    
# CTYPE1  = 'RA---TAN'           / R.A. in tangent plane projection               
# CTYPE2  = 'DEC--TAN'           / DEC. in tangent plane projection               
# CRPIX1  =        1568.29696921 / Ref pix of axis 1                              
# CRPIX2  =     1044.27820467852 / Ref pix of axis 2                              
# CRVAL1  =     41.5137187491146 / RA at Ref pix in decimal degrees               
# CRVAL2  =     3.33006526281499 / DEC at Ref pix in decimal degrees              
# CD1_1   = -2.80958734426091E-05 / WCS matrix element 1 1                        
# CD1_2   = 3.51226016704096E-05 / WCS matrix element 1 2                         
# CD2_1   = -3.51150649853661E-05 / WCS matrix element 2 1                        
# CD2_2   = -2.80978726385834E-05 / WCS matrix element 2 2                        
# CCDSUM  = '2 2     '           / CCD sum                                        
# GAIN    =                  1.0 / Amplifier gain                                 
# GAINMULT=                 1.65 / Gain multiplication                            
# RDNOISE =                 3.98 / Readout noise                                  
# RADECSYS= 'FK5     '           / R.A./DEC. coordinate system reference          
# EQUINOX =                2000. / Equinox of coordinate system                   
# MJD-OBS =     59087.5430774519 / MJD of start of obseration                     
# DISPAXIS=                    1 / Dispersion Axis                                
# GMOSAIC = '2020-08-26T17:50:24' / UT Time stamp for GMOSAIC                     
# GMSINTER= 'linear  '           / Interpolant used by GMOSAIC                    
# WMEF    = '2020-08-26T20:46:47' / UT Time stamp for WMEF                        
# GSFLATIM= 'flat1.fits'         / Flatfield Image used by gsreduce               
# GSREDUCE= '2020-08-26T17:50:25' / UT Time stamp for GSREDUCE                    
# GSAPPWAV= '2020-08-26T19:08:07' / UT Time stamp for GSAPPWAVE                   
# GSTRANSF= '2020-08-26T19:28:05' / UT Time stamp for GSTRANSFORM                 
# GSEXTRAC= '2020-08-26T20:44:38' / UT Time stamp for GSEXTRACT                   
# GSCALIBR= '2020-08-26T20:46:47' / UT Time stamp for GSCALIBRATE                 
# END
3672.4641    1.6403e-16
3673.4790    1.2680e-16
3674.4939    9.0527e-17
3675.5088    1.1139e-16
3676.5236    1.5959e-16
3677.5385    1.0368e-16
3678.5534    1.1321e-16
3679.5683    1.4183e-16
3680.5832    7.2266e-17
3681.5981    9.6257e-17
3682.6130    1.0783e-16
3683.6278    1.1539e-16
3684.6427    1.1264e-16
3685.6576    1.1282e-16
3686.6725    1.4236e-16
3687.6874    1.1396e-16
3688.7023    1.3787e-16
3689.7172    1.4757e-16
3690.7321    1.5112e-16
3691.7469    1.4607e-16
3692.7618    1.6015e-16
3693.7767    1.5664e-16
3694.7916    1.4726e-16
3695.8065    1.7674e-16
3696.8214    1.0387e-16
3697.8363    3.6366e-17
3698.8511    4.6230e-17
3699.8660    8.5038e-17
3700.8809    9.0219e-17
3701.8958    1.3925e-16
3702.9107    1.3918e-16
3703.9256    6.0764e-17
3704.9405    5.7194e-17
3705.9554    1.4170e-16
3706.9702    1.1084e-16
3707.9851    1.5957e-16
3709.0000    1.4570e-16
3710.0149    1.5259e-16
3711.0298    2.0828e-16
3712.0447    1.8954e-16
3713.0596    9.9551e-17
3714.0744    9.6348e-17
3715.0893    1.2231e-16
3716.1042    1.2453e-16
3717.1191    1.3423e-16
3718.1340    1.2286e-16
3719.1489    1.1371e-16
3720.1638    7.5335e-17
3721.1787    9.9605e-17
3722.1935    1.3074e-16
3723.2084    1.1711e-16
3724.2233    1.2844e-16
3725.2382    1.3813e-16
3726.2531    1.3727e-16
3727.2680    1.3150e-16
3728.2829    9.7365e-17
3729.2977    1.1215e-16
3730.3126    1.1165e-16
3731.3275    1.3091e-16
3732.3424    1.2405e-16
3733.3573    1.1894e-16
3734.3722    1.6892e-16
3735.3871    1.4344e-16
3736.4020    1.3335e-16
3737.4168    1.0909e-16
3738.4317    9.2798e-17
3739.4466    9.0126e-17
3740.4615    1.0721e-16
3741.4764    1.1418e-16
3742.4913   -1.1449e-18
3743.5062    3.3955e-17
3744.5210    5.2448e-17
3745.5359    8.3285e-17
3746.5508    9.9848e-17
3747.5657    1.1434e-16
3748.5806    1.1207e-16
3749.5955    1.1548e-16
3750.6104    1.0686e-16
3751.6253    1.5093e-16
3752.6401    1.3278e-16
3753.6550    7.1602e-17
3754.6699    3.5853e-17
3755.6848    1.1040e-16
3756.6997    1.2619e-16
3757.7146    1.2407e-16
3758.7295    1.3222e-16
3759.7443    9.7077e-17
3760.7592    6.7041e-17
3761.7741    1.1376e-16
