# Spectrum combined from four exposures, the header of the first one is shown here
# SIMPLE  =                    T / Fits standard                                  
# BITPIX  =                   16 / Bits per pixel                                 
# NAXIS   =                    0 / Number of axes                                 
# EXTEND  =                    T / File may contain extensions                    
# ORIGIN  = 'NOAO-IRAF FITS Image Kernel July 2003' / FITS file originator        
# DATE    = '2020-09-01T07:46:56' / Date FITS file was generated                  
# IRAF-TLM= '2020-09-03T12:54:57' / Time of last modification                     
# COMMENT   FITS (Flexible Image Transport System) format is defined in 'Astronomy
# COMMENT   and Astrophysics', volume 376, page 359; bibcode: 2001A&A...376..359H 
# INSTRUME= 'GMOS-N  '           / Instrument used to acquire data                
# SEQEXVER= '20200825-60abaa92'  / Seqexec version                                
# OBJECT  = 'ZTF20abwzqzo'       / Object Name                                    
# OBSTYPE = 'OBJECT  '           / Observation type                               
# OBSCLASS= 'science '           / Observe class                                  
# GEMPRGID= 'GN-2020B-Q-901'     / Gemini programme ID                            
# OBSID   = 'GN-2020B-Q-901-49'  / Observation ID / Data label                    
# DATALAB = 'GN-2020B-Q-901-49-002' / DHS data label                              
# OBSERVER= 'B. Cooper'          / Observer                                       
# OBSERVAT= 'Gemini-North'       / Name of telescope (Gemini-North|Gemini-South)  
# TELESCOP= 'Gemini-North'       / Gemini-North                                   
# PARALLAX=                   0. / Parallax of Target                             
# RADVEL  =                   0. / Heliocentric Radial Velocity                   
# EPOCH   =                2000. / Epoch for Target coordinates                   
# EQUINOX =                2000. / Equinox of coordinate system                   
# TRKEQUIN=                2000. / Tracking equinox                               
# SSA     = 'J. Berghuis'        / SSA                                            
# RA      =     41.5137916666667 / Right Ascension                                
# DEC     =     3.32994444444444 / Declination of Target                          
# ELEVATIO=     59.1515305555556 / Current Elevation                              
# AZIMUTH =     118.751838888889 / Current Azimuth                                
# CRPA    =     4.58115293616703 / Current Cass Rotator Position Angle            
# HA      = '-01:47:12.13'       / Telescope hour angle                           
# LT      = '03:00:51.2'         / Local time at start of observation             
# TRKFRAME= 'FK5     '           / Tracking co-ordinate                           
# DECTRACK=                   0. / Differential tracking rate Dec                 
# TRKEPOCH=     59087.5288115881 / Differential tracking reference epoch          
# RATRACK =                   0. / Differential tracking rate RA                  
# FRAME   = 'FK5     '           / Target coordinate system                       
# PMDEC   =                   0. / Proper Motion in Declination                   
# PMRA    =                   0. / Proper Motion in RA                            
# WAVELENG=                5200. / Effective Target Wavelength                    
# RAWIQ   = '85-percentile'      / Raw Image Quality                              
# RAWCC   = '50-percentile'      / Raw Cloud Cover                                
# RAWWV   = 'UNKNOWN '           / Raw Water Vapour/Transparency                  
# RAWBG   = 'UNKNOWN '           / Raw Background                                 
# RAWPIREQ= 'YES     '                                                            
# RAWGEMQA= 'USABLE  '                                                            
# CGUIDMOD= 'Basic   '           / Carousel Mode                                  
# UT      = '13:00:51.7'         / UT at observation start                        
# M2BAFFLE= 'VISIBLE '           / Position of M2 baffle                          
# M2CENBAF= 'CLOSED  '           / Position of M2 central hole baffle             
# ST      = '00:59:55.7'         / Sidereal time at the start of the exposure     
# XOFFSET =    0.174951739158709 / Telescope offset in x in arcsec                
# YOFFSET =    0.476411087766997 / Telescope offset in y in arcsec                
# POFFSET =    0.175799585570408 / Telescope offset in p in arcsec                
# QOFFSET =    0.476098877645456 / Telescope offset in q in arcsec                
# RAOFFSET=   -0.261948178552181 / Telescope offset in RA in arcsec               
# DECOFFSE=     0.43469390073382 / Telescope offset in DEC in arcsec              
# RATRGOFF=                   0. / Target offset in RA in arcsec                  
# DECTRGOF=                   0. / Target offset in DEC in arcsec                 
# PA      =               308.66 / Sky Position Angle at start of exposure        
# IAA     =              179.898 / Instrument Alignment Angle                     
# SFRT2   =     178.841748696984 / Science fold rotation angle (degrees)          
# SFTILT  =              44.9296 / Science fold tilt angle (degrees)              
# SFLINEAR=               -1.997 / Science fold linear position (mm)              
# AOFOLD  = 'park-pos.'          / AO Pick-Off Mirror Position                    
# PWFS1_ST= 'parked  '           / PWFS1 probe state (frozen,guiding,parked)      
# PWFS2_ST= 'parked  '           / PWFS2 probe state (frozen,guiding,parked)      
# OIWFS_ST= 'guiding '           / OIWFS probe state (frozen,guiding,parked)      
# AOWFS_ST= 'parked  '           / AOWFS probe state (frozen,guiding,parked)      
# SCIBAND =                    1 / Science Ranking Band                           
# REQIQ   = 'Any     '           / Requested Image Quality                        
# REQCC   = '70-percentile'      / Requested Cloud Cover                          
# REQBG   = 'Any     '           / Requested Background                           
# REQWV   = 'Any     '           / Requested Water Vapour                         
# REQMAXAM=                   2. / Requested Maximum Airmass                      
# REQMINAM=                   1. / Requested Minimum Airmass                      
# NUMREQTW=                    1 / Number of Requested Timing Window REQTW entries
# REQTWS01= '2020-08-26T12:29:04.943' / Requested Timing Window 01 Start (UTC)    
# REQTWD01=               86400. / Requested Timing Window 01 Duration [seconds]  
# REQTWN01=                    0 / Requested Timing Window 01 Number of Repeats   
# REQTWP01=                   0. / Requested Timing Window 01 Repeat Period [secon
# OIARA   =             41.46215 / RA of OIWFS guide star                         
# OIADEC  =             3.324625 / Declination of OIWFS guide star                
# OIARV   =                   0. / OIWFS Heliocentric Radial Velocity             
# OIAWAVEL=                6500. / OIWFS Effective Target Wavelength              
# OIAEPOCH=                2000. / Epoch for OIWFS guide star coordinates         
# OIAEQUIN=                2000. / Equinox for OIWFS guide star coordinates       
# OIAFRAME= 'FK5     '           / OIWFS Target co-ordinate system                
# OIAOBJEC= '467-003673'         / Object Name for OIWFS, Chop A                  
# OIAPMDEC= -0.00260000000184945 / OIWFS Proper Motion in Declination             
# OIAPMRA = 4.00674350418113E-05 / OIWFS Proper Motion in RA                      
# OIAPARAL=                   0. / OIWFS Parallax of Target                       
# OIFREQ  =                 200. / OIWFS sampling frequency (Hz)                  
# HUMIDITY=                16.46 / The Relative Humidity (fraction, 0..101).      
# TAMBIENT=                 2.12 / The ambient temp (C).                          
# TAMBIEN2=               35.816 / The ambient temp (F).                          
# PRESSURE=     462.900501533147 / The atmospheric pressure (mm Hg).              
# PRESSUR2=               61715. / The atmospheric pressure (Pa).                 
# DEWPOINT=    -20.9994296995032 / The dew point (C).                             
# DEWPOIN2=     -5.7989734591057 / The dew point (F).                             
# WINDSPEE=            2.4950534 / The wind speed (m/s).                          
# WINDSPE2=     5.58127550107373 / The wind speed (mph).                          
# WINDDIRE=                65.61 / The wind direction (degrees).                  
# INPORT  =                    5 / Number of ISS port where GMOS was located      
# GMOSCC  = 'GMOS-N (V7-13)'     / GMOS components controller s/w                 
# TIME-OBS= '13:00:52.2'         / Time of observation                            
# PREIMAGE=                    F / MOS pre-imaging                                
# CONID   = 'ARC-III '           / Detector controller ID                         
# DETECTOR= 'GMOS-N + Hamamatsu' / Detector name                                  
# DEWAR   = 'Lab Cryostat'       / Dewar name                                     
# ARRYTMPD=             -102.657 / Array temperature D (Celsius)                  
# ARRYTMPA=              -96.234 / Array temperature A (Celsius)                  
# ARRYTMPB=              -95.858 / Array temperature B (Celsius)                  
# ARRYTMPC=              -95.076 / Array temperature C (Celsius)                  
# ARRYTSET=               -102.7 / Array temperature Setpoint (Celsius)           
# DETSIZE = '[1:6144,1:4224]'    / Detector size                                  
# NCCDS   =                    3 / Number of CCD chips                            
# NAMPS   =                    4 / Number of amplifiers                           
# SHUTTER = 'OPEN    '           / Shutter state during observation               
# AMPINTEG=                11880 / Amplifier integration time                     
# OBSEPOCH=     2020.65172428619 / Epoch at start of exposure                     
# TIMESYS = 'UTC     '           / Time system used                               
# DATE-OBS= '2020-08-26'         / UT Date of observation (YYYY-MM-DD)            
# GMOSTHT = 'WARNING '           / Shutter health                                 
# NSUBEXP =                    1 / Number of sub exposures                        
# UTSTART = '13:00:57.6167'      / UT at observation start                        
# UTEND   = '13:10:57.6167'      / UT at observation end                          
# EXPTIME =                 600. / Exposure time in seconds                       
# ELAPSED =                 600. / Elapsed observation time in seconds            
# DARKTIME=     621.083354949951 / Dark current integration in seconds            
# MASKID  =             10005354 / Mask/IFU barcode                               
# MASKNAME= '1.0arcsec'          / Mask name                                      
# MASKTYP =                    1 / Mask/IFU type (0=none/-1=IFU/1=mask)           
# MASKLOC =                    0 / Mask/IFU location (-1=unknown/0=FP/1=cassette) 
# FILTER1 = 'open1-6 '           / Filter 1 name                                  
# FILTID1 =             20000018 / Filter 1 barcode                               
# FILTER2 = 'open2-8 '           / Filter 2 name                                  
# FILTID2 =             20000008 / Filter 2 barcode                               
# GRATING = 'B600+_G5307'        / Grating name                                   
# GRATID  =             30000018 / Grating barcode                                
# GRWLEN  =                 520. / Grating wavelength at slit (nm)                
# CENTWAVE=                 520. / Central wavelength (nm)                        
# GRORDER =                    1 / Grating order                                  
# GRTILT  =     55.0884895324707 / Grating tilt angle (degrees)                   
# GRSTEP  =     5887.98372465079 / Requested grating motor step position          
# DTAX    =                  84. / Detector translation X position (microns)      
# DTAY    =                  92. / Detector translation Y position (microns)      
# DTAZ    =                1862. / Detector translation Z position (microns)      
# DTAZST  =                1862. / Focus at observation start (microns)           
# DTAZEN  =                1862. / Focus at observation end (microns)             
# DTAZME  =                1862. / Mean focus during observation (microns)        
# DTMODE  = 'FOLLOW-XY'          / Detector translation stage mode                
# ADCMODE = 'STOP    '           / ADC mode                                       
# GMOSDC  = 'gmosdc-6.10'        / GMOS detector controller s/w                   
# DETTYPE = 'S10892-N'           / Detector array type                            
# DETID   = 'BI13-20-4k-1,BI12-09-4k-2,BI13-18-4k-2' / Chip IDs                   
# EXPOSURE=                 600. / Requested exposure time in seconds             
# ADCUSED =                    1 / ADC used? (0=yes/1=no)                         
# DETNROI =                    1 / No. regions of interest                        
# ADCENPST=                   0. / Start entrance prism angle of ADC              
# ADCENPEN=                   0. / End entrance prism angle of ADC                
# ADCENPME=                   0. / Mean entrance prism angle of ADC               
# ADCEXPST=                   0. / Start exit prism angle of ADC                  
# ADCEXPEN=                   0. / End exit prism angle of ADC                    
# ADCEXPME=                   0. / Mean exit prism angle of ADC                   
# ADCWLEN1=                   0. / Lower wavelength for ADC calculation           
# ADCWLEN2=                   0. / Upper wavelength for ADC calculation           
# DETRO1X =                    1 / ROI 1 X start                                  
# DETRO1XS=                 3072 / ROI 1 X size                                   
# DETRO1Y =                    1 / ROI 1 Y start                                  
# DETRO1YS=                 2112 / ROI 1 Y size                                   
# AIRMASS =     1.15188990932019 / Mean airmass for the observation               
# AMSTART =     1.16440957624516 / Airmass at start of exposure                   
# AMEND   =     1.13985420517773 / Airmass at end of exposure                     
# PROP_MD =                    F / Proprietary Metadata                           
# RELEASE = '2021-08-26'         / End of proprietary period YYY-MM-DD            
# NSCIEXT =                    1 / Number of science extensions                   
# PIXSCALE=               0.1614 / Pixel scale in Y in arcsec/pixel               
# NEXTEND =                    2 / Number of extensions                           
# OBSMODE = 'LONGSLIT'           / Observing mode (IMAGE|IFU|MOS|LONGSLIT)        
# GEM-TLM = '2020-09-03T12:54:29' / UT Last modification with GEMINI              
# GPREPARE= '2020-09-01T07:46:56' / UT Time stamp for GPREPARE                    
# TRIMMED = 'yes     '           / Overscan section trimmed                       
# GGAIN   = '2020-09-01T07:47:14' / UT Time stamp for GGAIN                       
# BIASIM  = 'zero    '           / Bias image used by GIREDUCE                    
# GIREDUCE= '2020-09-01T07:47:14' / UT Time stamp for GIREDUCE                    
# CTYPE1  = 'RA---TAN'           / R.A. in tangent plane projection               
# CTYPE2  = 'DEC--TAN'           / DEC. in tangent plane projection               
# CRPIX1  =        1568.29696921 / Ref pix of axis 1                              
# CRPIX2  =     1044.27820467852 / Ref pix of axis 2                              
# CRVAL1  =     41.5137187491146 / RA at Ref pix in decimal degrees               
# CRVAL2  =     3.33006526281499 / DEC at Ref pix in decimal degrees              
# CD1_1   = -2.80958734426091E-05 / WCS matrix element 1 1                        
# CD1_2   = 3.51226016704096E-05 / WCS matrix element 1 2                         
# CD2_1   = -3.51150649853661E-05 / WCS matrix element 2 1                        
# CD2_2   = -2.80978726385834E-05 / WCS matrix element 2 2                        
# CCDSUM  = '2 2     '           / CCD sum                                        
# GAIN    =                  1.0 / Amplifier gain                                 
# GAINMULT=                 1.65 / Gain multiplication                            
# RDNOISE =                 3.98 / Readout noise                                  
# RADECSYS= 'FK5     '           / R.A./DEC. coordinate system reference          
# EQUINOX =                2000. / Equinox of coordinate system                   
# MJD-OBS =     59087.5430774519 / MJD of start of obseration                     
# DISPAXIS=                    1 / Dispersion Axis                                
# GMOSAIC = '2020-09-01T07:47:15' / UT Time stamp for GMOSAIC                     
# GMSINTER= 'linear  '           / Interpolant used by GMOSAIC                    
# WMEF    = '2020-09-03T12:54:29' / UT Time stamp for WMEF                        
# GSFLATIM= 'flat1.fits'         / Flatfield Image used by gsreduce               
# GSREDUCE= '2020-09-01T07:47:15' / UT Time stamp for GSREDUCE                    
# GSTRANSF= '2020-09-01T08:19:26' / UT Time stamp for GSTRANSFORM                 
# GSEXTRAC= '2020-09-01T10:49:41' / UT Time stamp for GSEXTRACT                   
# GSCALIBR= '2020-09-03T12:54:29' / UT Time stamp for GSCALIBRATE                 
# END
3626.7893    2.6557e-16
3627.8043    2.6381e-16
3628.8192    2.5827e-16
3629.8342    2.5546e-16
3630.8491    2.5080e-16
3631.8641    2.5056e-16
3632.8791    2.4797e-16
3633.8940    2.4988e-16
3634.9090    2.5201e-16
3635.9240    2.4945e-16
3636.9389    2.5465e-16
3637.9539    2.6158e-16
3638.9688    2.6595e-16
3639.9838    2.5968e-16
3640.9988    2.3478e-16
3642.0137    2.4151e-16
3643.0287    2.2002e-16
3644.0437    1.9116e-16
3645.0586    2.3682e-16
3646.0736    2.4778e-16
3647.0885    1.9536e-16
3648.1035    1.5625e-16
3649.1185    2.3618e-16
3650.1334    2.0672e-16
3651.1484    1.9802e-16
3652.1633    1.9413e-16
3653.1783    2.0987e-16
3654.1933    2.0475e-16
3655.2082    1.9351e-16
3656.2232    1.7587e-16
3657.2382    1.7309e-16
3658.2531    1.8357e-16
3659.2681    1.8701e-16
3660.2830    1.9353e-16
3661.2980    2.0524e-16
3662.3130    1.7252e-16
3663.3279    1.8055e-16
3664.3429    1.8193e-16
3665.3579    1.6914e-16
3666.3728    2.0251e-16
3667.3878    1.9519e-16
3668.4027    1.7095e-16
3669.4177    2.1083e-16
3670.4327    1.8628e-16
3671.4476    1.3954e-16
3672.4626    1.6082e-16
3673.4776    1.4421e-16
3674.4925    1.0148e-16
3675.5075    1.2887e-16
3676.5224    1.7807e-16
3677.5374    1.7107e-16
3678.5524    1.6803e-16
3679.5673    1.7207e-16
3680.5823    1.1530e-16
3681.5972    1.1447e-16
3682.6122    1.2008e-16
3683.6272    1.3066e-16
3684.6421    1.4611e-16
3685.6571    1.4740e-16
3686.6721    1.5803e-16
3687.6870    1.3540e-16
3688.7020    1.4140e-16
3689.7169    1.6234e-16
3690.7319    1.7846e-16
3691.7469    1.4266e-16
3692.7618    1.2169e-16
3693.7768    1.3587e-16
3694.7918    1.3663e-16
3695.8067    1.2205e-16
3696.8217    1.0316e-16
3697.8366    7.2171e-17
3698.8516    6.9513e-17
3699.8666    8.8599e-17
3700.8815    7.1430e-17
3701.8965    1.2666e-16
3702.9115    1.4447e-16
3703.9264    6.8899e-17
3704.9414    9.4024e-17
3705.9563    1.2723e-16
3706.9713    1.2557e-16
3707.9863    1.5217e-16
3709.0012    1.4533e-16
3710.0162    1.1538e-16
3711.0311    1.5329e-16
3712.0461    1.6614e-16
3713.0611    8.3828e-17
3714.0760    7.8673e-17
3715.0910    1.0049e-16
3716.1060    9.8648e-17
3717.1209    1.1733e-16
3718.1359    1.1556e-16
3719.1508    1.0755e-16
3720.1658    7.5806e-17
