Title: The Final Season Reimagined: 30 Tidal Disruption Events from the 
       ZTF-I Survey 
Authors: Hammerstein E., van Velzen S., Gezari S., Cenko S.B., Yao Y., Ward C.,
    Frederick S., Villanueva N., Somalwar J.J., Graham M.J., Kulkarni S.R., 
    Stern D., Andreoni I., Bellm E.C., Dekany R., Dhawan S., Drake A.J., 
    Fremling C., Gatkine P., Groom S.L., Ho A.Y.Q., Kasliwal M.M., 
    Karambelkar V., Kool E.C., Masci F.J., Medford M.S., Perley D.A., 
    Purdum J., van Roestel J., Sharma Y., Sollerman J., Taggart K., Yan L.
Table: Data behind Figure 1 -- DBSP spectrum of Bronn
================================================================================
Byte-by-byte Description of file: Bronn_DBSP.mrt
--------------------------------------------------------------------------------
   Bytes Format Units         Label     Explanations
--------------------------------------------------------------------------------
   1-  9 F9.3   0.1nm         wave      Wavelength, Angstroms
  11- 20 A10    mW/m2/0.1nm   flux      Flux density, calibrated, erg/cm^2/s/Ang
--------------------------------------------------------------------------------
 3400.0   9.8779e-17 
 3401.525 1.3515e-16 
 3403.05  1.1535e-16 
 3404.575 1.0818e-16 
 3406.1   9.4049e-17 
 3407.625 1.1309e-16 
 3409.15  8.7261e-17 
 3410.675 9.81e-17   
 3412.2   9.2375e-17 
 3413.725 1.2372e-16 
 3415.25  7.5656e-17 
 3416.775 1.0597e-16 
 3418.3   9.596e-17  
 3419.825 1.0626e-16 
 3421.35  1.361e-16  
 3422.875 1.1644e-16 
 3424.4   1.2194e-16 
 3425.925 1.0092e-16 
 3427.45  7.4164e-17 
 3428.975 8.8492e-17 
 3430.5   1.1032e-16 
 3432.025 1.0084e-16 
 3433.55  8.455e-17  
 3435.075 6.4992e-17 
 3436.6   1.0835e-16 
 3438.125 9.9282e-17 
 3439.65  9.4581e-17 
 3441.175 1.0309e-16 
 3442.7   9.8815e-17 
 3444.225 8.5882e-17 
 3445.75  7.765e-17  
 3447.275 9.662e-17  
 3448.8   8.2259e-17 
 3450.325 8.9433e-17 
 3451.85  8.7879e-17 
 3453.375 8.8152e-17 
 3454.9   8.6243e-17 
 3456.425 8.6276e-17 
 3457.95  1.2071e-16 
 3459.475 1.3166e-16 
 3461.0   9.6051e-17 
 3462.525 7.4029e-17 
 3464.05  7.4921e-17 
 3465.575 1.0991e-16 
 3467.1   8.9742e-17 
 3468.625 9.5481e-17 
 3470.15  1.0893e-16 
 3471.675 1.0641e-16 
 3473.2   1.0655e-16 
 3474.725 8.0959e-17 
 3476.25  8.325e-17  
 3477.775 9.1666e-17 
 3479.3   8.5408e-17 
 3480.825 9.3052e-17 
 3482.35  1.164e-16  
 3483.875 8.904e-17  
 3485.4   9.5382e-17 
 3486.925 1.006e-16  
 3488.45  1.0062e-16 
 3489.975 9.9661e-17 
 3491.5   1.1328e-16 
 3493.025 1.1909e-16 
 3494.55  8.7219e-17 
 3496.075 1.1574e-16 
 3497.6   1.0017e-16 
 3499.125 9.3648e-17 
 3500.65  9.2559e-17 
 3502.175 8.5979e-17 
 3503.7   8.6625e-17 
 3505.225 9.6733e-17 
 3506.75  1.073e-16  
 3508.275 1.0383e-16 
 3509.8   1.022e-16  
 3511.325 9.9005e-17 
 3512.85  9.575e-17  
 3514.375 1.1185e-16 
 3515.9   1.1649e-16 
 3517.425 1.1285e-16 
 3518.95  1.095e-16  
 3520.475 9.7861e-17 
 3522.0   1.1153e-16 
 3523.525 1.0411e-16 
 3525.05  9.1703e-17 
 3526.575 9.4138e-17 
 3528.1   9.3015e-17 
 3529.625 9.066e-17  
 3531.15  1.0009e-16 
 3532.675 9.7018e-17 
 3534.2   1.0598e-16 
 3535.725 9.7335e-17 
 3537.25  1.0883e-16 
 3538.775 1.033e-16  
 3540.3   8.8494e-17 
 3541.825 9.1959e-17 
 3543.35  9.9278e-17 
 3544.875 8.6732e-17 
 3546.4   9.4921e-17 
 3547.925 9.0885e-17 
 3549.45  8.4213e-17 
 3550.975 8.9722e-17 
 3552.5   7.9055e-17 
 3554.025 9.4125e-17 
 3555.55  1.038e-16  
 3557.075 1.0775e-16 
 3558.6   1.0112e-16 
 3560.125 9.4643e-17 
 3561.65  9.8023e-17 
 3563.175 9.6962e-17 
 3564.7   1.1017e-16 
 3566.225 1.2512e-16 
 3567.75  1.0269e-16 
 3569.275 9.5432e-17 
 3570.8   9.9308e-17 
 3572.325 1.1017e-16 
 3573.85  1.019e-16  
 3575.375 8.8572e-17 
 3576.9   8.146e-17  
 3578.425 8.8246e-17 
 3579.95  1.0359e-16 
 3581.475 9.5917e-17 
 3583.0   9.1014e-17 
 3584.525 9.453e-17  
 3586.05  9.7133e-17 
 3587.575 9.0678e-17 
 3589.1   9.2745e-17 
 3590.625 1.0768e-16 
 3592.15  1.1389e-16 
 3593.675 9.2343e-17 
 3595.2   1.004e-16  
 3596.725 1.0288e-16 
 3598.25  1.0777e-16 
 3599.775 1.0369e-16 
 3601.3   1.0119e-16 
 3602.825 9.0381e-17 
 3604.35  9.355e-17  
 3605.875 9.8821e-17 
 3607.4   1.0919e-16 
 3608.925 1.0339e-16 
 3610.45  9.0393e-17 
 3611.975 9.9599e-17 
 3613.5   1.0161e-16 
 3615.025 9.3686e-17 
 3616.55  9.6038e-17 
 3618.075 1.1001e-16 
 3619.6   1.0192e-16 
 3621.125 9.5348e-17 
 3622.65  9.376e-17  
 3624.175 8.2682e-17 
 3625.7   8.7574e-17 
 3627.225 9.0523e-17 
 3628.75  1.0831e-16 
 3630.275 9.0627e-17 
 3631.8   9.6463e-17 
 3633.325 9.4339e-17 
 3634.85  8.8505e-17 
 3636.375 1.0753e-16 
 3637.9   1.0549e-16 
 3639.425 1.0737e-16 
 3640.95  1.056e-16  
 3642.475 1.0826e-16 
 3644.0   1.0829e-16 
 3645.525 9.3981e-17 
 3647.05  8.5898e-17 
 3648.575 9.3773e-17 
 3650.1   1.0978e-16 
 3651.625 1.0784e-16 
 3653.15  1.0829e-16 
 3654.675 9.7597e-17 
 3656.2   9.6869e-17 
 3657.725 9.1747e-17 
 3659.25  1.0492e-16 
 3660.775 1.0067e-16 
 3662.3   1.0973e-16 
 3663.825 1.0107e-16 
 3665.35  1.11e-16   
 3666.875 1.0772e-16 
 3668.4   1.0038e-16 
 3669.925 1.0906e-16 
 3671.45  1.0709e-16 
 3672.975 9.343e-17  
 3674.5   9.1463e-17 
 3676.025 9.8241e-17 
 3677.55  9.4817e-17 
 3679.075 9.542e-17  
 3680.6   9.191e-17  
 3682.125 9.3341e-17 
 3683.65  8.8004e-17 
 3685.175 8.0458e-17 
 3686.7   8.7964e-17 
 3688.225 9.169e-17  
 3689.75  8.2037e-17 
 3691.275 9.5432e-17 
 3692.8   1.0558e-16 
 3694.325 1.0178e-16 
 3695.85  1.0563e-16 
 3697.375 9.3813e-17 
 3698.9   1.0303e-16 
 3700.425 8.4162e-17 
 3701.95  8.2237e-17 
 3703.475 8.6559e-17 
 3705.0   8.709e-17  
 3706.525 8.8115e-17 
 3708.05  8.7107e-17 
 3709.575 9.3761e-17 
 3711.1   9.7396e-17 
 3712.625 8.9166e-17 
 3714.15  8.9277e-17 
 3715.675 9.9436e-17 
 3717.2   1.0449e-16 
 3718.725 9.806e-17  
 3720.25  1.1137e-16 
 3721.775 9.606e-17  
 3723.3   8.7799e-17 
 3724.825 9.5974e-17 
 3726.35  8.3327e-17 
 3727.875 9.3178e-17 
 3729.4   7.997e-17  
 3730.925 1.006e-16  
 3732.45  1.1066e-16 
 3733.975 9.873e-17  
 3735.5   9.5527e-17 
 3737.025 1.0076e-16 
 3738.55  9.4798e-17 
 3740.075 9.0185e-17 
 3741.6   9.0357e-17 
 3743.125 9.1259e-17 
 3744.65  9.9605e-17 
 3746.175 8.7355e-17 
 3747.7   7.7788e-17 
 3749.225 9.2784e-17 
 3750.75  1.0385e-16 
 3752.275 1.038e-16  
 3753.8   1.06e-16   
 3755.325 9.6871e-17 
 3756.85  9.7334e-17 
 3758.375 9.4878e-17 
 3759.9   9.8243e-17 
 3761.425 9.7481e-17 
 3762.95  8.6274e-17 
 3764.475 7.9575e-17 
 3766.0   8.6547e-17 
 3767.525 9.1874e-17 
 3769.05  1.0356e-16 
 3770.575 7.902e-17  
 3772.1   8.2435e-17 
 3773.625 8.6446e-17 
 3775.15  8.702e-17  
 3776.675 9.5086e-17 
 3778.2   9.2714e-17 
 3779.725 8.5084e-17 
 3781.25  9.1394e-17 
 3782.775 9.5068e-17 
 3784.3   9.4404e-17 
 3785.825 9.1632e-17 
 3787.35  9.6927e-17 
 3788.875 9.5497e-17 
 3790.4   9.3594e-17 
 3791.925 9.2024e-17 
 3793.45  8.247e-17  
 3794.975 9.7894e-17 
 3796.5   9.9175e-17 
 3798.025 9.0643e-17 
 3799.55  8.3973e-17 
 3801.075 8.7768e-17 
 3802.6   9.7602e-17 
 3804.125 9.0134e-17 
 3805.65  9.1148e-17 
 3807.175 1.0301e-16 
 3808.7   1.0357e-16 
 3810.225 9.7428e-17 
 3811.75  8.4192e-17 
 3813.275 9.3864e-17 
 3814.8   9.3704e-17 
 3816.325 9.9149e-17 
 3817.85  9.4484e-17 
 3819.375 9.1525e-17 
 3820.9   9.2482e-17 
 3822.425 1.055e-16  
 3823.95  1.0567e-16 
 3825.475 8.5478e-17 
 3827.0   9.1598e-17 
 3828.525 9.1864e-17 
 3830.05  8.1644e-17 
 3831.575 9.3862e-17 
 3833.1   9.8481e-17 
 3834.625 9.0087e-17 
 3836.15  8.5977e-17 
 3837.675 8.6112e-17 
 3839.2   9.1378e-17 
 3840.725 8.7473e-17 
 3842.25  8.2315e-17 
 3843.775 8.5977e-17 
 3845.3   9.3932e-17 
 3846.825 9.833e-17  
 3848.35  1.058e-16  
 3849.875 1.0844e-16 
 3851.4   1.0815e-16 
 3852.925 1.0974e-16 
 3854.45  8.7545e-17 
 3855.975 7.9959e-17 
 3857.5   9.0672e-17 
 3859.025 1.0245e-16 
 3860.55  9.0399e-17 
 3862.075 9.0149e-17 
 3863.6   8.9674e-17 
 3865.125 8.1157e-17 
 3866.65  8.328e-17  
 3868.175 8.6491e-17 
 3869.7   8.6544e-17 
 3871.225 9.7369e-17 
 3872.75  9.5809e-17 
 3874.275 8.6817e-17 
 3875.8   9.8179e-17 
 3877.325 9.429e-17  
 3878.85  8.9207e-17 
 3880.375 9.1093e-17 
 3881.9   8.3999e-17 
 3883.425 9.5512e-17 
 3884.95  8.8626e-17 
 3886.475 8.9256e-17 
 3888.0   8.8662e-17 
 3889.525 8.7373e-17 
 3891.05  9.3787e-17 
 3892.575 9.0153e-17 
 3894.1   8.8126e-17 
 3895.625 9.0676e-17 
 3897.15  9.9467e-17 
 3898.675 9.9525e-17 
 3900.2   9.4054e-17 
 3901.725 8.6867e-17 
 3903.25  9.4411e-17 
 3904.775 1.0175e-16 
 3906.3   9.2995e-17 
 3907.825 9.5393e-17 
 3909.35  9.6473e-17 
 3910.875 9.8644e-17 
 3912.4   9.214e-17  
 3913.925 8.4033e-17 
 3915.45  8.3011e-17 
 3916.975 9.8494e-17 
 3918.5   1.0431e-16 
 3920.025 8.7527e-17 
 3921.55  8.8837e-17 
 3923.075 8.5784e-17 
 3924.6   9.0604e-17 
 3926.125 8.2132e-17 
 3927.65  8.5447e-17 
 3929.175 9.1922e-17 
 3930.7   8.2353e-17 
 3932.225 8.4199e-17 
 3933.75  8.026e-17  
 3935.275 8.211e-17  
 3936.8   8.6177e-17 
 3938.325 8.4514e-17 
 3939.85  9.0061e-17 
 3941.375 9.3625e-17 
 3942.9   9.2829e-17 
 3944.425 9.7917e-17 
 3945.95  9.7856e-17 
 3947.475 8.6097e-17 
 3949.0   8.1757e-17 
 3950.525 8.3238e-17 
 3952.05  8.1114e-17 
 3953.575 8.4399e-17 
 3955.1   9.2548e-17 
 3956.625 8.8707e-17 
 3958.15  8.438e-17  
 3959.675 8.5383e-17 
 3961.2   9.2744e-17 
 3962.725 7.7022e-17 
 3964.25  7.6129e-17 
 3965.775 7.6828e-17 
 3967.3   8.1225e-17 
 3968.825 7.5126e-17 
 3970.35  7.2071e-17 
 3971.875 8.0178e-17 
 3973.4   8.4227e-17 
 3974.925 8.8865e-17 
 3976.45  9.7827e-17 
 3977.975 9.4678e-17 
 3979.5   8.7888e-17 
 3981.025 9.4731e-17 
 3982.55  9.5685e-17 
 3984.075 8.6917e-17 
 3985.6   7.9027e-17 
 3987.125 8.227e-17  
 3988.65  8.0355e-17 
 3990.175 8.7372e-17 
 3991.7   8.9627e-17 
 3993.225 9.5411e-17 
 3994.75  9.9935e-17 
 3996.275 8.8005e-17 
 3997.8   9.3358e-17 
 3999.325 9.3043e-17 
 4000.85  9.1341e-17 
 4002.375 9.6356e-17 
 4003.9   9.361e-17  
 4005.425 8.417e-17  
 4006.95  9.0594e-17 
 4008.475 8.1985e-17 
 4010.0   8.6351e-17 
 4011.525 9.3006e-17 
 4013.05  8.9964e-17 
 4014.575 8.5283e-17 
 4016.1   9.4197e-17 
 4017.625 8.6837e-17 
 4019.15  8.7548e-17 
 4020.675 9.1067e-17 
 4022.2   8.4196e-17 
 4023.725 9.4802e-17 
 4025.25  1.0384e-16 
 4026.775 9.6182e-17 
 4028.3   8.9843e-17 
 4029.825 8.9357e-17 
 4031.35  8.9342e-17 
 4032.875 9.3393e-17 
 4034.4   9.5948e-17 
 4035.925 9.8321e-17 
 4037.45  9.0382e-17 
 4038.975 8.8916e-17 
 4040.5   8.6726e-17 
 4042.025 8.2177e-17 
 4043.55  9.5911e-17 
 4045.075 9.1055e-17 
 4046.6   1.0772e-16 
 4048.125 1.0761e-16 
 4049.65  1.1001e-16 
 4051.175 9.276e-17  
 4052.7   8.9074e-17 
 4054.225 8.4707e-17 
 4055.75  8.9599e-17 
 4057.275 9.4317e-17 
 4058.8   9.5667e-17 
 4060.325 8.8344e-17 
 4061.85  8.1073e-17 
 4063.375 9.193e-17  
 4064.9   9.7614e-17 
 4066.425 9.6965e-17 
 4067.95  9.1176e-17 
 4069.475 9.5033e-17 
 4071.0   8.9054e-17 
 4072.525 8.3475e-17 
 4074.05  9.0377e-17 
 4075.575 9.0802e-17 
 4077.1   9.0382e-17 
 4078.625 8.418e-17  
 4080.15  8.5752e-17 
 4081.675 7.9859e-17 
 4083.2   9.0959e-17 
 4084.725 8.9243e-17 
 4086.25  8.8976e-17 
 4087.775 8.8924e-17 
 4089.3   8.5064e-17 
 4090.825 7.7525e-17 
 4092.35  8.5979e-17 
 4093.875 8.8481e-17 
 4095.4   8.7509e-17 
 4096.925 8.8582e-17 
 4098.45  8.5565e-17 
 4099.975 9.0375e-17 
 4101.5   9.4634e-17 
 4103.025 9.0445e-17 
 4104.55  9.0313e-17 
 4106.075 8.7798e-17 
 4107.6   8.9383e-17 
 4109.125 8.6697e-17 
 4110.65  9.6376e-17 
 4112.175 9.8677e-17 
 4113.7   8.6263e-17 
 4115.225 8.2314e-17 
 4116.75  8.0711e-17 
 4118.275 8.6701e-17 
 4119.8   9.0536e-17 
 4121.325 8.6454e-17 
 4122.85  8.9396e-17 
 4124.375 9.371e-17  
 4125.9   9.6527e-17 
 4127.425 9.2733e-17 
 4128.95  9.2072e-17 
 4130.475 9.8954e-17 
 4132.0   9.1509e-17 
 4133.525 9.2902e-17 
 4135.05  8.5436e-17 
 4136.575 8.2928e-17 
 4138.1   9.0033e-17 
 4139.625 9.8975e-17 
 4141.15  8.4425e-17 
 4142.675 8.1598e-17 
 4144.2   7.9904e-17 
 4145.725 8.4188e-17 
 4147.25  8.5386e-17 
 4148.775 8.8213e-17 
 4150.3   8.9602e-17 
 4151.825 9.1283e-17 
 4153.35  8.7073e-17 
 4154.875 8.7526e-17 
 4156.4   9.1993e-17 
 4157.925 8.9854e-17 
 4159.45  8.7109e-17 
 4160.975 9.596e-17  
 4162.5   9.3671e-17 
 4164.025 8.1343e-17 
 4165.55  8.3884e-17 
 4167.075 8.1211e-17 
 4168.6   8.1884e-17 
 4170.125 8.7361e-17 
 4171.65  9.2203e-17 
 4173.175 8.5048e-17 
 4174.7   8.5112e-17 
 4176.225 8.1918e-17 
 4177.75  8.6371e-17 
 4179.275 8.6645e-17 
 4180.8   8.1778e-17 
 4182.325 8.8223e-17 
 4183.85  7.8716e-17 
 4185.375 7.8121e-17 
 4186.9   8.4586e-17 
 4188.425 9.6324e-17 
 4189.95  9.0941e-17 
 4191.475 9.2218e-17 
 4193.0   9.0499e-17 
 4194.525 9.5032e-17 
 4196.05  8.7529e-17 
 4197.575 8.8077e-17 
 4199.1   7.9314e-17 
 4200.625 8.3744e-17 
 4202.15  8.5152e-17 
 4203.675 8.9683e-17 
 4205.2   7.8939e-17 
 4206.725 8.7248e-17 
 4208.25  8.0021e-17 
 4209.775 8.4654e-17 
 4211.3   8.0645e-17 
 4212.825 8.5155e-17 
 4214.35  8.6941e-17 
 4215.875 9.21e-17   
 4217.4   8.7663e-17 
 4218.925 8.6284e-17 
 4220.45  8.52e-17   
 4221.975 7.9425e-17 
 4223.5   7.6384e-17 
 4225.025 8.9113e-17 
 4226.55  8.8954e-17 
 4228.075 7.8729e-17 
 4229.6   8.0765e-17 
 4231.125 7.8046e-17 
 4232.65  8.0505e-17 
 4234.175 8.1941e-17 
 4235.7   9.0242e-17 
 4237.225 9.3321e-17 
 4238.75  8.6752e-17 
 4240.275 9.0104e-17 
 4241.8   8.0527e-17 
 4243.325 8.1628e-17 
 4244.85  8.5632e-17 
 4246.375 8.9908e-17 
 4247.9   8.6305e-17 
 4249.425 8.7749e-17 
 4250.95  7.1801e-17 
 4252.475 7.9995e-17 
 4254.0   8.0604e-17 
 4255.525 7.4697e-17 
 4257.05  8.9004e-17 
 4258.575 9.0688e-17 
 4260.1   9.093e-17  
 4261.625 8.6957e-17 
 4263.15  9.3496e-17 
 4264.675 9.1252e-17 
 4266.2   8.0202e-17 
 4267.725 8.3802e-17 
 4269.25  7.8473e-17 
 4270.775 7.9228e-17 
 4272.3   9.0615e-17 
 4273.825 9.5406e-17 
 4275.35  8.9567e-17 
 4276.875 8.5067e-17 
 4278.4   8.9324e-17 
 4279.925 8.8203e-17 
 4281.45  9.2019e-17 
 4282.975 8.4471e-17 
 4284.5   6.9398e-17 
 4286.025 7.5033e-17 
 4287.55  7.9204e-17 
 4289.075 7.7884e-17 
 4290.6   8.105e-17  
 4292.125 8.4074e-17 
 4293.65  8.8759e-17 
 4295.175 8.1865e-17 
 4296.7   8.3339e-17 
 4298.225 8.3635e-17 
 4299.75  7.4447e-17 
 4301.275 7.337e-17  
 4302.8   7.4583e-17 
 4304.325 7.7627e-17 
 4305.85  8.4572e-17 
 4307.375 8.2771e-17 
 4308.9   8.7255e-17 
 4310.425 8.7244e-17 
 4311.95  8.3071e-17 
 4313.475 7.9304e-17 
 4315.0   7.5357e-17 
 4316.525 7.9548e-17 
 4318.05  8.8959e-17 
 4319.575 8.7738e-17 
 4321.1   8.0034e-17 
 4322.625 7.1275e-17 
 4324.15  7.0696e-17 
 4325.675 8.2942e-17 
 4327.2   7.9512e-17 
 4328.725 8.0841e-17 
 4330.25  7.217e-17  
 4331.775 8.2258e-17 
 4333.3   8.5884e-17 
 4334.825 9.6732e-17 
 4336.35  8.7326e-17 
 4337.875 8.329e-17  
 4339.4   8.2373e-17 
 4340.925 8.9502e-17 
 4342.45  9.0493e-17 
 4343.975 8.6091e-17 
 4345.5   7.9971e-17 
 4347.025 8.4993e-17 
 4348.55  8.1663e-17 
 4350.075 7.9229e-17 
 4351.6   8.3727e-17 
 4353.125 7.7386e-17 
 4354.65  7.9399e-17 
 4356.175 8.0446e-17 
 4357.7   7.5377e-17 
 4359.225 8.8311e-17 
 4360.75  8.1566e-17 
 4362.275 9.4804e-17 
 4363.8   9.6285e-17 
 4365.325 8.913e-17  
 4366.85  8.9961e-17 
 4368.375 9.686e-17  
 4369.9   9.3817e-17 
 4371.425 9.3272e-17 
 4372.95  1.0498e-16 
 4374.475 9.1603e-17 
 4376.0   8.6906e-17 
 4377.525 8.5763e-17 
 4379.05  8.6051e-17 
 4380.575 9.1383e-17 
 4382.1   8.4682e-17 
 4383.625 8.6053e-17 
 4385.15  9.5565e-17 
 4386.675 8.3224e-17 
 4388.2   8.5397e-17 
 4389.725 8.984e-17  
 4391.25  7.877e-17  
 4392.775 8.4521e-17 
 4394.3   8.2245e-17 
 4395.825 8.7317e-17 
 4397.35  8.1262e-17 
 4398.875 7.2463e-17 
 4400.4   7.7561e-17 
 4401.925 7.2064e-17 
 4403.45  8.4732e-17 
 4404.975 8.2747e-17 
 4406.5   8.2992e-17 
 4408.025 8.7436e-17 
 4409.55  8.6949e-17 
 4411.075 8.6527e-17 
 4412.6   8.6231e-17 
 4414.125 9.6975e-17 
 4415.65  1.0085e-16 
 4417.175 9.2726e-17 
 4418.7   7.6767e-17 
 4420.225 8.595e-17  
 4421.75  8.673e-17  
 4423.275 8.54e-17   
 4424.8   9.1958e-17 
 4426.325 8.9262e-17 
 4427.85  8.8351e-17 
 4429.375 9.3824e-17 
 4430.9   9.4995e-17 
 4432.425 9.5315e-17 
 4433.95  1.0204e-16 
 4435.475 9.6715e-17 
 4437.0   9.7036e-17 
 4438.525 9.842e-17  
 4440.05  9.8259e-17 
 4441.575 9.4168e-17 
 4443.1   9.5837e-17 
 4444.625 8.5553e-17 
 4446.15  8.4003e-17 
 4447.675 8.121e-17  
 4449.2   8.32e-17   
 4450.725 8.589e-17  
 4452.25  8.0199e-17 
 4453.775 8.2978e-17 
 4455.3   7.8901e-17 
 4456.825 8.3894e-17 
 4458.35  9.3168e-17 
 4459.875 7.4979e-17 
 4461.4   6.9019e-17 
 4462.925 8.3314e-17 
 4464.45  8.5246e-17 
 4465.975 8.5099e-17 
 4467.5   8.2605e-17 
 4469.025 8.9672e-17 
 4470.55  9.3971e-17 
 4472.075 8.7905e-17 
 4473.6   9.6124e-17 
 4475.125 8.8734e-17 
 4476.65  8.9239e-17 
 4478.175 8.5978e-17 
 4479.7   8.4478e-17 
 4481.225 8.5683e-17 
 4482.75  8.5576e-17 
 4484.275 9.2929e-17 
 4485.8   8.5845e-17 
 4487.325 9.108e-17  
 4488.85  9.4603e-17 
 4490.375 9.364e-17  
 4491.9   9.5945e-17 
 4493.425 9.2041e-17 
 4494.95  9.26e-17   
 4496.475 8.179e-17  
 4498.0   7.7285e-17 
 4499.525 9.1726e-17 
 4501.05  8.5128e-17 
 4502.575 8.3884e-17 
 4504.1   8.0705e-17 
 4505.625 7.7723e-17 
 4507.15  7.8341e-17 
 4508.675 7.5141e-17 
 4510.2   6.8305e-17 
 4511.725 6.6314e-17 
 4513.25  6.5098e-17 
 4514.775 5.7139e-17 
 4516.3   7.3233e-17 
 4517.825 6.4079e-17 
 4519.35  6.5022e-17 
 4520.875 8.6252e-17 
 4522.4   9.1647e-17 
 4523.925 9.6206e-17 
 4525.45  8.0078e-17 
 4526.975 7.5501e-17 
 4528.5   8.9034e-17 
 4530.025 8.323e-17  
 4531.55  8.6937e-17 
 4533.075 8.8683e-17 
 4534.6   8.1125e-17 
 4536.125 8.488e-17  
 4537.65  8.4453e-17 
 4539.175 8.332e-17  
 4540.7   7.7802e-17 
 4542.225 6.7641e-17 
 4543.75  6.7877e-17 
 4545.275 8.1089e-17 
 4546.8   7.9853e-17 
 4548.325 7.4956e-17 
 4549.85  6.8509e-17 
 4551.375 6.1541e-17 
 4552.9   7.2447e-17 
 4554.425 6.6981e-17 
 4555.95  6.4171e-17 
 4557.475 6.7663e-17 
 4559.0   7.755e-17  
 4560.525 7.7848e-17 
 4562.05  8.9974e-17 
 4563.575 8.2414e-17 
 4565.1   7.8821e-17 
 4566.625 7.6522e-17 
 4568.15  8.3278e-17 
 4569.675 7.9766e-17 
 4571.2   7.6132e-17 
 4572.725 8.6336e-17 
 4574.25  9.8623e-17 
 4575.775 8.8357e-17 
 4577.3   8.0152e-17 
 4578.825 8.7113e-17 
 4580.35  9.084e-17  
 4581.875 8.9784e-17 
 4583.4   9.1355e-17 
 4584.925 9.4212e-17 
 4586.45  8.1011e-17 
 4587.975 8.3295e-17 
 4589.5   9.9341e-17 
 4591.025 9.1283e-17 
 4592.55  8.2748e-17 
 4594.075 8.0637e-17 
 4595.6   8.7653e-17 
 4597.125 8.3659e-17 
 4598.65  8.883e-17  
 4600.175 8.8938e-17 
 4601.7   9.8137e-17 
 4603.225 9.6558e-17 
 4604.75  9.2442e-17 
 4606.275 8.9364e-17 
 4607.8   9.0828e-17 
 4609.325 9.3862e-17 
 4610.85  1.0256e-16 
 4612.375 1.0303e-16 
 4613.9   8.3905e-17 
 4615.425 9.4017e-17 
 4616.95  8.4534e-17 
 4618.475 9.038e-17  
 4620.0   9.03e-17   
 4621.525 9.4439e-17 
 4623.05  1.008e-16  
 4624.575 9.2807e-17 
 4626.1   8.5677e-17 
 4627.625 8.4543e-17 
 4629.15  8.7987e-17 
 4630.675 8.9528e-17 
 4632.2   8.6976e-17 
 4633.725 8.2687e-17 
 4635.25  8.3953e-17 
 4636.775 9.2742e-17 
 4638.3   9.1661e-17 
 4639.825 9.2549e-17 
 4641.35  9.046e-17  
 4642.875 8.6029e-17 
 4644.4   8.4844e-17 
 4645.925 9.172e-17  
 4647.45  9.5562e-17 
 4648.975 9.548e-17  
 4650.5   1.0015e-16 
 4652.025 8.9982e-17 
 4653.55  8.8301e-17 
 4655.075 8.0271e-17 
 4656.6   9.4945e-17 
 4658.125 8.7767e-17 
 4659.65  8.6157e-17 
 4661.175 8.3872e-17 
 4662.7   8.1635e-17 
 4664.225 8.6668e-17 
 4665.75  9.0907e-17 
 4667.275 8.924e-17  
 4668.8   9.074e-17  
 4670.325 8.7696e-17 
 4671.85  9.019e-17  
 4673.375 8.3107e-17 
 4674.9   8.9521e-17 
 4676.425 7.8657e-17 
 4677.95  8.0168e-17 
 4679.475 8.1983e-17 
 4681.0   7.6655e-17 
 4682.525 9.1792e-17 
 4684.05  8.2082e-17 
 4685.575 8.1692e-17 
 4687.1   8.1211e-17 
 4688.625 7.7727e-17 
 4690.15  8.1207e-17 
 4691.675 8.4992e-17 
 4693.2   9.251e-17  
 4694.725 7.6537e-17 
 4696.25  8.1391e-17 
 4697.775 7.7903e-17 
 4699.3   8.1224e-17 
 4700.825 8.6506e-17 
 4702.35  7.7061e-17 
 4703.875 7.6604e-17 
